# wavelength flux
3301.65796 4.48535e-15
3304.31681 5.08488e-15
3306.97567 5.90989e-15
3309.63452 6.50352e-15
3312.29337 6.02626e-15
3314.95223 5.28082e-15
3317.61108 4.95871e-15
3320.26993 5.35822e-15
3322.92879 5.39133e-15
3325.58764 5.28845e-15
3328.24649 4.90957e-15
3330.90535 4.53262e-15
3333.56420 5.07196e-15
3336.22306 5.39514e-15
3338.88191 5.15724e-15
3341.54076 5.14605e-15
3344.19962 5.17523e-15
3346.85847 5.88993e-15
3349.51732 6.39593e-15
3352.17618 5.98153e-15
3354.83503 5.82532e-15
3357.49388 5.74760e-15
3360.15274 5.75832e-15
3362.81159 5.94548e-15
3365.47044 5.58176e-15
3368.12930 5.53880e-15
3370.78815 6.34654e-15
3373.44700 6.58070e-15
3376.10586 6.08262e-15
3378.76471 6.17845e-15
3381.42357 6.38370e-15
3384.08242 5.92006e-15
3386.74127 5.26900e-15
3389.40013 5.28198e-15
3392.05898 5.64495e-15
3394.71783 5.86371e-15
3397.37669 5.82213e-15
3400.03554 5.68172e-15
3402.69439 5.77649e-15
3405.35325 5.92312e-15
3408.01210 5.78094e-15
3410.67095 5.93583e-15
3413.32981 6.14506e-15
3415.98866 5.78328e-15
3418.64751 5.81433e-15
3421.30637 5.74271e-15
3423.96522 5.61645e-15
3426.62408 5.85330e-15
3429.28293 6.00010e-15
3431.94178 5.40894e-15
3434.60064 5.22775e-15
3437.25949 5.61412e-15
3439.91834 5.87981e-15
3442.57720 5.84399e-15
3445.23605 5.80382e-15
3447.89490 5.88018e-15
3450.55376 5.69415e-15
3453.21261 5.74000e-15
3455.87146 5.93637e-15
3458.53032 5.93965e-15
3461.18917 5.86610e-15
3463.84803 5.77775e-15
3466.50688 5.76093e-15
3469.16573 5.67495e-15
3471.82459 5.53520e-15
3474.48344 5.65858e-15
3477.14229 5.97196e-15
3479.80115 5.82976e-15
3482.46000 5.32025e-15
3485.11885 5.43943e-15
3487.77771 5.78078e-15
3490.43656 5.73259e-15
3493.09541 5.78628e-15
3495.75427 5.82565e-15
3498.41312 5.64735e-15
3501.07197 5.54215e-15
3503.73083 5.41398e-15
3506.38968 5.32484e-15
3509.04854 5.34219e-15
3511.70739 5.50745e-15
3514.36624 5.48285e-15
3517.02510 5.70420e-15
3519.68395 5.46003e-15
3522.34280 5.60040e-15
3525.00166 5.69228e-15
3527.66051 5.60543e-15
3530.31936 5.46286e-15
3532.97822 5.17714e-15
3535.63707 5.20838e-15
3538.29592 5.25856e-15
3540.95478 5.24030e-15
3543.61363 5.16981e-15
3546.27248 5.20441e-15
3548.93134 5.30086e-15
3551.59019 4.95472e-15
3554.24905 5.01351e-15
3556.90790 5.12564e-15
3559.56675 5.15253e-15
3562.22561 5.17630e-15
3564.88446 5.12015e-15
3567.54331 5.16637e-15
3570.20217 5.26193e-15
3572.86102 5.36584e-15
3575.51987 5.29672e-15
3578.17873 5.09232e-15
3580.83758 4.93906e-15
3583.49643 5.06210e-15
3586.15529 5.29148e-15
3588.81414 5.31024e-15
3591.47300 5.40504e-15
3594.13185 5.23816e-15
3596.79070 5.13993e-15
3599.44956 5.33736e-15
3602.10841 5.38401e-15
3604.76726 5.32922e-15
3607.42612 5.26005e-15
3610.08497 5.21305e-15
3612.74382 5.18044e-15
3615.40268 5.25143e-15
3618.06153 5.53542e-15
3620.72038 5.48596e-15
3623.37924 5.44745e-15
3626.03809 5.43167e-15
3628.69694 5.28647e-15
3631.35580 5.45112e-15
3634.01465 5.38396e-15
3636.67351 5.36838e-15
3639.33236 5.35794e-15
3641.99121 5.52115e-15
3644.65007 5.61161e-15
3647.30892 5.55080e-15
3649.96777 5.65361e-15
3652.62663 5.74120e-15
3655.28548 5.71387e-15
3657.94433 5.67664e-15
3660.60319 5.72030e-15
3663.26204 5.80143e-15
3665.92089 5.84331e-15
3668.57975 5.87755e-15
3671.23860 5.84188e-15
3673.89745 5.81646e-15
3676.55631 5.86424e-15
3679.21516 5.83524e-15
3681.87402 5.82924e-15
3684.53287 5.98808e-15
3687.19172 6.08043e-15
3689.85058 5.99610e-15
3692.50943 5.94138e-15
3695.16828 5.90273e-15
3697.82714 5.83601e-15
3700.48599 5.79335e-15
3703.14484 5.73344e-15
3705.80370 5.78717e-15
3708.46255 5.77097e-15
3711.12140 5.63607e-15
3713.78026 5.66823e-15
3716.43911 5.73479e-15
3719.09797 5.61449e-15
3721.75682 5.61764e-15
3724.41567 5.62169e-15
3727.07453 5.46179e-15
3729.73338 5.44719e-15
3732.39223 5.54625e-15
3735.05109 5.55505e-15
3737.70994 5.40806e-15
3740.36879 5.37441e-15
3743.02765 5.46879e-15
3745.68650 5.47947e-15
3748.34535 5.43317e-15
3751.00421 5.37567e-15
3753.66306 5.40745e-15
3756.32191 5.48984e-15
3758.98077 5.40594e-15
3761.63962 5.33355e-15
3764.29848 5.37165e-15
3766.95733 5.32955e-15
3769.61618 5.26640e-15
3772.27504 5.17530e-15
3774.93389 5.20860e-15
3777.59274 5.33332e-15
3780.25160 5.33078e-15
3782.91045 5.31669e-15
3785.56930 5.43804e-15
3788.22816 5.52458e-15
3790.88701 5.45069e-15
3793.54586 5.34584e-15
3796.20472 5.42810e-15
3798.86357 5.59512e-15
3801.52243 5.64913e-15
3804.18128 5.69005e-15
3806.84013 5.78225e-15
3809.49899 5.87453e-15
3812.15784 5.94345e-15
3814.81669 6.07816e-15
3817.47555 6.11700e-15
3820.13440 6.04185e-15
3822.79325 6.15545e-15
3825.45211 6.31400e-15
3828.11096 6.31525e-15
3830.76981 6.32125e-15
3833.42867 6.29987e-15
3836.08752 6.39791e-15
3838.74637 6.48104e-15
3841.40523 6.58209e-15
3844.06408 6.64538e-15
3846.72294 6.67779e-15
3849.38179 6.75013e-15
3852.04064 6.86141e-15
3854.69950 6.89386e-15
3857.35835 6.89091e-15
3860.01720 6.88446e-15
3862.67606 7.05580e-15
3865.33491 7.14704e-15
3867.99376 7.12360e-15
3870.65262 7.11336e-15
3873.31147 7.14321e-15
3875.97032 7.13619e-15
3878.62918 7.06769e-15
3881.28803 7.11107e-15
3883.94688 7.20207e-15
3886.60574 7.20390e-15
3889.26459 7.20794e-15
3891.92345 7.18490e-15
3894.58230 7.19850e-15
3897.24115 7.22665e-15
3899.90001 7.25437e-15
3902.55886 7.22415e-15
3905.21771 7.11249e-15
3907.87657 7.08022e-15
3910.53542 7.13553e-15
3913.19427 7.12806e-15
3915.85313 7.02004e-15
3918.51198 6.96982e-15
3921.17083 6.93843e-15
3923.82969 6.97941e-15
3926.48854 7.01203e-15
3929.14740 6.97443e-15
3931.80625 6.97269e-15
3934.46510 7.00019e-15
3937.12396 7.01552e-15
3939.78281 7.03220e-15
3942.44166 7.07693e-15
3945.10052 7.18972e-15
3947.75937 7.11150e-15
3950.41822 7.08408e-15
3953.07708 7.18691e-15
3955.73593 7.22359e-15
3958.39478 7.23718e-15
3961.05364 7.22502e-15
3963.71249 7.19138e-15
3966.37134 7.20611e-15
3969.03020 7.27475e-15
3971.68905 7.26742e-15
3974.34791 7.26561e-15
3977.00676 7.27300e-15
3979.66561 7.31202e-15
3982.32447 7.42770e-15
3984.98332 7.36257e-15
3987.64217 7.26109e-15
3990.30103 7.22734e-15
3992.95988 7.25682e-15
3995.61873 7.29149e-15
3998.27759 7.28826e-15
4000.93644 7.35013e-15
4003.59529 7.31951e-15
4006.25415 7.31926e-15
4008.91300 7.40933e-15
4011.57185 7.33965e-15
4014.23071 7.29785e-15
4016.88956 7.31604e-15
4019.54842 7.29979e-15
4022.20727 7.33831e-15
4024.86612 7.36879e-15
4027.52498 7.36075e-15
4030.18383 7.22760e-15
4032.84268 7.11600e-15
4035.50154 7.13159e-15
4038.16039 7.23654e-15
4040.81924 7.21963e-15
4043.47810 7.03642e-15
4046.13695 6.89650e-15
4048.79580 6.80980e-15
4051.45466 6.77437e-15
4054.11351 6.84941e-15
4056.77237 6.82009e-15
4059.43122 6.70497e-15
4062.09007 6.72932e-15
4064.74893 6.75564e-15
4067.40778 6.62269e-15
4070.06663 6.46924e-15
4072.72549 6.41458e-15
4075.38434 6.52211e-15
4078.04319 6.43132e-15
4080.70205 6.34990e-15
4083.36090 6.32076e-15
4086.01975 6.27407e-15
4088.67861 6.23776e-15
4091.33746 6.27726e-15
4093.99631 6.13587e-15
4096.65517 6.06479e-15
4099.31402 6.03571e-15
4101.97288 6.02455e-15
4104.63173 6.04066e-15
4107.29058 6.03511e-15
4109.94944 5.94853e-15
4112.60829 5.87651e-15
4115.26714 5.90894e-15
4117.92600 5.85909e-15
4120.58485 5.74760e-15
4123.24370 5.72147e-15
4125.90256 5.74759e-15
4128.56141 5.74968e-15
4131.22026 5.73188e-15
4133.87912 5.73483e-15
4136.53797 5.71388e-15
4139.19683 5.71933e-15
4141.85568 5.68632e-15
4144.51453 5.61086e-15
4147.17339 5.60861e-15
4149.83224 5.66345e-15
4152.49109 5.68010e-15
4155.14995 5.72271e-15
4157.80880 5.69085e-15
4160.46765 5.65959e-15
4163.12651 5.69005e-15
4165.78536 5.71814e-15
4168.44421 5.65836e-15
4171.10307 5.64511e-15
4173.76192 5.65582e-15
4176.42077 5.71563e-15
4179.07963 5.77550e-15
4181.73848 5.86329e-15
4184.39734 5.82999e-15
4187.05619 5.81333e-15
4189.71504 5.87957e-15
4192.37390 5.93825e-15
4195.03275 5.93992e-15
4197.69160 5.98412e-15
4200.35046 6.09402e-15
4203.00931 6.14689e-15
4205.66816 6.13885e-15
4208.32702 6.14621e-15
4210.98587 6.17624e-15
4213.64472 6.24797e-15
4216.30358 6.20480e-15
4218.96243 6.19746e-15
4221.62128 6.31024e-15
4224.28014 6.32383e-15
4226.93899 6.27682e-15
4229.59785 6.31808e-15
4232.25670 6.34186e-15
4234.91555 6.36979e-15
4237.57441 6.46426e-15
4240.23326 6.45084e-15
4242.89211 6.42365e-15
4245.55097 6.42041e-15
4248.20982 6.42851e-15
4250.86867 6.48835e-15
4253.52753 6.39529e-15
4256.18638 6.40620e-15
4258.84523 6.55233e-15
4261.50409 6.61177e-15
4264.16294 6.54401e-15
4266.82180 6.47083e-15
4269.48065 6.39216e-15
4272.13950 6.37529e-15
4274.79836 6.40222e-15
4277.45721 6.37001e-15
4280.11606 6.33838e-15
4282.77492 6.37131e-15
4285.43377 6.41073e-15
4288.09262 6.43261e-15
4290.75148 6.42278e-15
4293.41033 6.34065e-15
4296.06918 6.32616e-15
4298.72804 6.37567e-15
4301.38689 6.35180e-15
4304.04574 6.32908e-15
4306.70460 6.29968e-15
4309.36345 6.27788e-15
4312.02231 6.26809e-15
4314.68116 6.20206e-15
4317.34001 6.17124e-15
4319.99887 6.21518e-15
4322.65772 6.21387e-15
4325.31657 6.16907e-15
4327.97543 6.12696e-15
4330.63428 6.08289e-15
4333.29313 6.05383e-15
4335.95199 6.05613e-15
4338.61084 6.03608e-15
4341.26969 5.97207e-15
4343.92855 5.93921e-15
4346.58740 5.91561e-15
4349.24625 5.86946e-15
4351.90511 5.88078e-15
4354.56396 5.91843e-15
4357.22282 5.90887e-15
4359.88167 5.87471e-15
4362.54052 5.87114e-15
4365.19938 5.89503e-15
4367.85823 5.87397e-15
4370.51708 5.86470e-15
4373.17594 5.82503e-15
4375.83479 5.82828e-15
4378.49364 5.90629e-15
4381.15250 5.93929e-15
4383.81135 5.94861e-15
4386.47020 5.93491e-15
4389.12906 5.97635e-15
4391.78791 5.98919e-15
4394.44677 6.03248e-15
4397.10562 6.01989e-15
4399.76447 6.06726e-15
4402.42333 6.10388e-15
4405.08218 6.09697e-15
4407.74103 6.19760e-15
4410.39989 6.24540e-15
4413.05874 6.24816e-15
4415.71759 6.30707e-15
4418.37645 6.35835e-15
4421.03530 6.39409e-15
4423.69415 6.35169e-15
4426.35301 6.38359e-15
4429.01186 6.45431e-15
4431.67071 6.47174e-15
4434.32957 6.54402e-15
4436.98842 6.62968e-15
4439.64728 6.67470e-15
4442.30613 6.73911e-15
4444.96498 6.77304e-15
4447.62384 6.74502e-15
4450.28269 6.75370e-15
4452.94154 6.84355e-15
4455.60040 6.91398e-15
4458.25925 6.93064e-15
4460.91810 6.98747e-15
4463.57696 7.06220e-15
4466.23581 7.11410e-15
4468.89466 7.14798e-15
4471.55352 7.17347e-15
4474.21237 7.20538e-15
4476.87122 7.22914e-15
4479.53008 7.21094e-15
4482.18893 7.15706e-15
4484.84779 7.15905e-15
4487.50664 7.22772e-15
4490.16549 7.26706e-15
4492.82435 7.22734e-15
4495.48320 7.21167e-15
4498.14205 7.32845e-15
4500.80091 7.30174e-15
4503.45976 7.29542e-15
4506.11861 7.35636e-15
4508.77747 7.30722e-15
4511.43632 7.25107e-15
4514.09517 7.24099e-15
4516.75403 7.22968e-15
4519.41288 7.19972e-15
4522.07174 7.14638e-15
4524.73059 7.08829e-15
4527.38944 7.01759e-15
4530.04830 6.96498e-15
4532.70715 6.95302e-15
4535.36600 6.98661e-15
4538.02486 6.95988e-15
4540.68371 6.94282e-15
4543.34256 6.87960e-15
4546.00142 6.75220e-15
4548.66027 6.68015e-15
4551.31912 6.63193e-15
4553.97798 6.55977e-15
4556.63683 6.53386e-15
4559.29568 6.52260e-15
4561.95454 6.42949e-15
4564.61339 6.34339e-15
4567.27225 6.30866e-15
4569.93110 6.26618e-15
4572.58995 6.23837e-15
4575.24881 6.22071e-15
4577.90766 6.16875e-15
4580.56651 6.10945e-15
4583.22537 6.05049e-15
4585.88422 5.98864e-15
4588.54307 6.01928e-15
4591.20193 5.92686e-15
4593.86078 5.83732e-15
4596.51963 5.81896e-15
4599.17849 5.84032e-15
4601.83734 5.80979e-15
4604.49620 5.72316e-15
4607.15505 5.74597e-15
4609.81390 5.73114e-15
4612.47276 5.67588e-15
4615.13161 5.63321e-15
4617.79046 5.60125e-15
4620.44932 5.58274e-15
4623.10817 5.53425e-15
4625.76702 5.48983e-15
4628.42588 5.46283e-15
4631.08473 5.49074e-15
4633.74358 5.50791e-15
4636.40244 5.53183e-15
4639.06129 5.51651e-15
4641.72014 5.44340e-15
4644.37900 5.44053e-15
4647.03785 5.46625e-15
4649.69671 5.48019e-15
4652.35556 5.49137e-15
4655.01441 5.48297e-15
4657.67327 5.48541e-15
4660.33212 5.55499e-15
4662.99097 5.60325e-15
4665.64983 5.56862e-15
4668.30868 5.59192e-15
4670.96753 5.66730e-15
4673.62639 5.67136e-15
4676.28524 5.64050e-15
4678.94409 5.63616e-15
4681.60295 5.69985e-15
4684.26180 5.78373e-15
4686.92065 5.74693e-15
4689.57951 5.68304e-15
4692.23836 5.73548e-15
4694.89722 5.81640e-15
4697.55607 5.84044e-15
4700.21492 5.83295e-15
4702.87378 5.83346e-15
4705.53263 5.90826e-15
4708.19148 5.97531e-15
4710.85034 5.98637e-15
4713.50919 6.03947e-15
4716.16804 6.01399e-15
4718.82690 6.06605e-15
4721.48575 6.17179e-15
4724.14460 6.22368e-15
4726.80346 6.26584e-15
4729.46231 6.30188e-15
4732.12117 6.26108e-15
4734.78002 6.25803e-15
4737.43887 6.33373e-15
4740.09773 6.42322e-15
4742.75658 6.46413e-15
4745.41543 6.50023e-15
4748.07429 6.56281e-15
4750.73314 6.59529e-15
4753.39199 6.57407e-15
4756.05085 6.56361e-15
4758.70970 6.59657e-15
4761.36855 6.59974e-15
4764.02741 6.58479e-15
4766.68626 6.64112e-15
4769.34511 6.68806e-15
4772.00397 6.69748e-15
4774.66282 6.73457e-15
4777.32168 6.80229e-15
4779.98053 6.88068e-15
4782.63938 6.84988e-15
4785.29824 6.74876e-15
4787.95709 6.70968e-15
4790.61594 6.66768e-15
4793.27480 6.67191e-15
4795.93365 6.72740e-15
4798.59250 6.75693e-15
4801.25136 6.77748e-15
4803.91021 6.78800e-15
4806.56906 6.81362e-15
4809.22792 6.78167e-15
4811.88677 6.84752e-15
4814.54562 6.84337e-15
4817.20448 6.84910e-15
4819.86333 6.85769e-15
4822.52219 6.91315e-15
4825.18104 6.87395e-15
4827.83989 6.89899e-15
4830.49875 7.00136e-15
4833.15760 7.01241e-15
4835.81645 6.95803e-15
4838.47531 6.95510e-15
4841.13416 6.91836e-15
4843.79301 6.96965e-15
4846.45187 6.94669e-15
4849.11072 6.94455e-15
4851.76957 6.92239e-15
4854.42843 6.93360e-15
4857.08728 6.93770e-15
4859.74614 6.95621e-15
4862.40499 6.91873e-15
4865.06384 6.86299e-15
4867.72270 6.90769e-15
4870.38155 6.92704e-15
4873.04040 6.92879e-15
4875.69926 6.92130e-15
4878.35811 6.91285e-15
4881.01696 6.88438e-15
4883.67582 6.81642e-15
4886.33467 6.81322e-15
4888.99352 6.85357e-15
4891.65238 6.89036e-15
4894.31123 6.86816e-15
4896.97008 6.80093e-15
4899.62894 6.79342e-15
4902.28779 6.80742e-15
4904.94665 6.76175e-15
4907.60550 6.68666e-15
4910.26435 6.67454e-15
4912.92321 6.65392e-15
4915.58206 6.62289e-15
4918.24091 6.63554e-15
4920.89977 6.61560e-15
4923.55862 6.58337e-15
4926.21747 6.47978e-15
4928.87633 6.39053e-15
4931.53518 6.44291e-15
4934.19403 6.42662e-15
4936.85289 6.38347e-15
4939.51174 6.35058e-15
4942.17059 6.28562e-15
4944.82945 6.25921e-15
4947.48830 6.27707e-15
4950.14716 6.27529e-15
4952.80601 6.22982e-15
4955.46486 6.19809e-15
4958.12372 6.21594e-15
4960.78257 6.21242e-15
4963.44142 6.13647e-15
4966.10028 6.15081e-15
4968.75913 6.18188e-15
4971.41798 6.15414e-15
4974.07684 6.17008e-15
4976.73569 6.12731e-15
4979.39454 6.07056e-15
4982.05340 6.08061e-15
4984.71225 6.07823e-15
4987.37111 6.05622e-15
4990.02996 6.06249e-15
4992.68881 6.08337e-15
4995.34767 6.05088e-15
4998.00652 5.98076e-15
5000.66537 5.97902e-15
5003.32423 6.02282e-15
5005.98308 6.01390e-15
5008.64193 5.99051e-15
5011.30079 5.97356e-15
5013.95964 5.97928e-15
5016.61849 6.00668e-15
5019.27735 5.98281e-15
5021.93620 5.95720e-15
5024.59505 5.98279e-15
5027.25391 6.00235e-15
5029.91276 5.98744e-15
5032.57162 5.99803e-15
5035.23047 6.01570e-15
5037.88932 5.99093e-15
5040.54818 5.95157e-15
5043.20703 5.99344e-15
5045.86588 6.05716e-15
5048.52474 6.10333e-15
5051.18359 6.08667e-15
5053.84244 6.01536e-15
5056.50130 5.98554e-15
5059.16015 6.03334e-15
5061.81900 6.06941e-15
5064.47786 6.02037e-15
5067.13671 6.02142e-15
5069.79557 6.05051e-15
5072.45442 6.05806e-15
5075.11327 6.07704e-15
5077.77213 6.04605e-15
5080.43098 6.04908e-15
5083.08983 6.08966e-15
5085.74869 6.09330e-15
5088.40754 6.07773e-15
5091.06639 6.07509e-15
5093.72525 6.10555e-15
5096.38410 6.13159e-15
5099.04295 6.10542e-15
5101.70181 6.06974e-15
5104.36066 6.08814e-15
5107.01951 6.14884e-15
5109.67837 6.17961e-15
5112.33722 6.16533e-15
5114.99608 6.16366e-15
5117.65493 6.19022e-15
5120.31378 6.23435e-15
5122.97264 6.25810e-15
5125.63149 6.23605e-15
5128.29034 6.21362e-15
5130.94920 6.19000e-15
5133.60805 6.20462e-15
5136.26690 6.26583e-15
5138.92576 6.31294e-15
5141.58461 6.29122e-15
5144.24346 6.26774e-15
5146.90232 6.30571e-15
5149.56117 6.27791e-15
5152.22002 6.25026e-15
5154.87888 6.29976e-15
5157.53773 6.29912e-15
5160.19659 6.27192e-15
5162.85544 6.32285e-15
5165.51429 6.43084e-15
5168.17315 6.37601e-15
5170.83200 6.28415e-15
5173.49085 6.30929e-15
5176.14971 6.35779e-15
5178.80856 6.35638e-15
5181.46741 6.35683e-15
5184.12627 6.37290e-15
5186.78512 6.33933e-15
5189.44397 6.32286e-15
5192.10283 6.34157e-15
5194.76168 6.37658e-15
5197.42054 6.37221e-15
5200.07939 6.33802e-15
5202.73824 6.35240e-15
5205.39710 6.35271e-15
5208.05595 6.32347e-15
5210.71480 6.31018e-15
5213.37366 6.35278e-15
5216.03251 6.41385e-15
5218.69136 6.41909e-15
5221.35022 6.41162e-15
5224.00907 6.41655e-15
5226.66792 6.45641e-15
5229.32678 6.41081e-15
5231.98563 6.35717e-15
5234.64448 6.37136e-15
5237.30334 6.36792e-15
5239.96219 6.29506e-15
5242.62105 6.28176e-15
5245.27990 6.30749e-15
5247.93875 6.30449e-15
5250.59761 6.30548e-15
5253.25646 6.28544e-15
5255.91531 6.26135e-15
5258.57417 6.22617e-15
5261.23302 6.21415e-15
5263.89187 6.21445e-15
5266.55073 6.18109e-15
5269.20958 6.11902e-15
5271.86843 6.13114e-15
5274.52729 6.18941e-15
5277.18614 6.16314e-15
5279.84499 6.12836e-15
5282.50385 6.09212e-15
5285.16270 6.03691e-15
5287.82156 5.97733e-15
5290.48041 5.97622e-15
5293.13926 5.97276e-15
5295.79812 5.97305e-15
5298.45697 6.00114e-15
5301.11582 6.03338e-15
5303.77468 6.05494e-15
5306.43353 6.00764e-15
5309.09238 5.90212e-15
5311.75124 5.89810e-15
5314.41009 5.97977e-15
5317.06894 5.96733e-15
5319.72780 5.87360e-15
5322.38665 5.87971e-15
5325.04551 5.93325e-15
5327.70436 5.90964e-15
5330.36321 5.87982e-15
5333.02207 5.86726e-15
5335.68092 5.89007e-15
5338.33977 5.85674e-15
5340.99863 5.81420e-15
5343.65748 5.78741e-15
5346.31633 5.76470e-15
5348.97519 5.73257e-15
5351.63404 5.74447e-15
5354.29289 5.77148e-15
5356.95175 5.78683e-15
5359.61060 5.76835e-15
5362.26945 5.67729e-15
5364.92831 5.68881e-15
5367.58716 5.72011e-15
5370.24602 5.70984e-15
5372.90487 5.68777e-15
5375.56372 5.67744e-15
5378.22258 5.65421e-15
5380.88143 5.57209e-15
5383.54028 5.57096e-15
5386.19914 5.59178e-15
5388.85799 5.62171e-15
5391.51684 5.59055e-15
5394.17570 5.52529e-15
5396.83455 5.51618e-15
5399.49340 5.48737e-15
5402.15226 5.47479e-15
5404.81111 5.44691e-15
5407.46996 5.41700e-15
5410.12882 5.40577e-15
5412.78767 5.37587e-15
5415.44653 5.30600e-15
5418.10538 5.26738e-15
5420.76423 5.32038e-15
5423.42309 5.35413e-15
5426.08194 5.33581e-15
5428.74079 5.28128e-15
5431.39965 5.21901e-15
5434.05850 5.21949e-15
5436.71735 5.16874e-15
5439.37621 5.10780e-15
5442.03506 5.11334e-15
5444.69391 5.07994e-15
5447.35277 5.09126e-15
5450.01162 5.07787e-15
5452.67048 4.99664e-15
5455.32933 4.99195e-15
5457.98818 5.03699e-15
5460.64704 4.95981e-15
5463.30589 4.90781e-15
5465.96474 4.88599e-15
5468.62360 4.84123e-15
5471.28245 4.84839e-15
5473.94130 4.88470e-15
5476.60016 4.87613e-15
5479.25901 4.84952e-15
5481.91786 4.79380e-15
5484.57672 4.78310e-15
5487.23557 4.74575e-15
5489.89442 4.72346e-15
5492.55328 4.75179e-15
5495.21213 4.77082e-15
5497.87099 4.73979e-15
5500.52984 4.73127e-15
5503.18869 4.70035e-15
5505.84755 4.65747e-15
5508.50640 4.66554e-15
5511.16525 4.69934e-15
5513.82411 4.68290e-15
5516.48296 4.65674e-15
5519.14181 4.67980e-15
5521.80067 4.68517e-15
5524.45952 4.66182e-15
5527.11837 4.68998e-15
5529.77723 4.72422e-15
5532.43608 4.69435e-15
5535.09494 4.66748e-15
5537.75379 4.67303e-15
5540.41264 4.66227e-15
5543.07150 4.64793e-15
5545.73035 4.63665e-15
5548.38920 4.62755e-15
5551.04806 4.65557e-15
5553.70691 4.67838e-15
5556.36576 4.66873e-15
5559.02462 4.66031e-15
5561.68347 4.65195e-15
5564.34232 4.62371e-15
5567.00118 4.60344e-15
5569.66003 4.60374e-15
5572.31888 4.54452e-15
5574.97774 4.50093e-15
5577.63659 4.55075e-15
5580.29545 4.58674e-15
5582.95430 4.58503e-15
5585.61315 4.56127e-15
5588.27201 4.51501e-15
5590.93086 4.52666e-15
5593.58971 4.55386e-15
5596.24857 4.51929e-15
5598.90742 4.50226e-15
5601.56627 4.53529e-15
5604.22513 4.49562e-15
5606.88398 4.43943e-15
5609.54283 4.42035e-15
5612.20169 4.42950e-15
5614.86054 4.43807e-15
5617.51939 4.45077e-15
5620.17825 4.46354e-15
5622.83710 4.47357e-15
5625.49596 4.47062e-15
5628.15481 4.45054e-15
5630.81366 4.45186e-15
5633.47252 4.47824e-15
5636.13137 4.49516e-15
5638.79022 4.47793e-15
5641.44908 4.47608e-15
5644.10793 4.53282e-15
5646.76678 4.56284e-15
5649.42564 4.54625e-15
5652.08449 4.58497e-15
5654.74334 4.61716e-15
5657.40220 4.58316e-15
5660.06105 4.56625e-15
5662.71991 4.55450e-15
5665.37876 4.57115e-15
5668.03761 4.58222e-15
5670.69647 4.61450e-15
5673.35532 4.64245e-15
5676.01417 4.64939e-15
5678.67303 4.64205e-15
5681.33188 4.65965e-15
5683.99073 4.69481e-15
5686.64959 4.72954e-15
5689.30844 4.71253e-15
5691.96729 4.71780e-15
5694.62615 4.71946e-15
5697.28500 4.71048e-15
5699.94385 4.69632e-15
5702.60271 4.71998e-15
5705.26156 4.76760e-15
5707.92042 4.76053e-15
5710.57927 4.71804e-15
5713.23812 4.72075e-15
5715.89698 4.74580e-15
5718.55583 4.71923e-15
5721.21468 4.72722e-15
5723.87354 4.76283e-15
5726.53239 4.76238e-15
5729.19124 4.74323e-15
5731.85010 4.75577e-15
5734.50895 4.80271e-15
5737.16780 4.82421e-15
5739.82666 4.83204e-15
5742.48551 4.79793e-15
5745.14436 4.77724e-15
5747.80322 4.80910e-15
5750.46207 4.82630e-15
5753.12093 4.85567e-15
5755.77978 4.86706e-15
5758.43863 4.84507e-15
5761.09749 4.82956e-15
5763.75634 4.79600e-15
5766.41519 4.81520e-15
5769.07405 4.86124e-15
5771.73290 4.84882e-15
5774.39175 4.85249e-15
5777.05061 4.88318e-15
5779.70946 4.85912e-15
5782.36831 4.79075e-15
5785.02717 4.79691e-15
5787.68602 4.83144e-15
5790.34488 4.81497e-15
5793.00373 4.81868e-15
5795.66258 4.88654e-15
5798.32144 4.88550e-15
5800.98029 4.82512e-15
5803.63914 4.84145e-15
5806.29800 4.87166e-15
5808.95685 4.81976e-15
5811.61570 4.83850e-15
5814.27456 4.83382e-15
5816.93341 4.87848e-15
5819.59226 4.91090e-15
5822.25112 4.88615e-15
5824.90997 4.89390e-15
5827.56882 4.85148e-15
5830.22768 4.83627e-15
5832.88653 4.85657e-15
5835.54539 4.78774e-15
5838.20424 4.77591e-15
5840.86309 4.82829e-15
5843.52195 4.86012e-15
5846.18080 4.86857e-15
5848.83965 4.87120e-15
5851.49851 4.85494e-15
5854.15736 4.85695e-15
5856.81621 4.85470e-15
5859.47507 4.81054e-15
5862.13392 4.77205e-15
5864.79277 4.77708e-15
5867.45163 4.82704e-15
5870.11048 4.83379e-15
5872.76933 4.79217e-15
5875.42819 4.76391e-15
5878.08704 4.72284e-15
5880.74590 4.70097e-15
5883.40475 4.68898e-15
5886.06360 4.66310e-15
5888.72246 4.58616e-15
5891.38131 4.52548e-15
5894.04016 4.52796e-15
5896.69902 4.51402e-15
5899.35787 4.46781e-15
5902.01672 4.51139e-15
5904.67558 4.61877e-15
5907.33443 4.61323e-15
5909.99328 4.58949e-15
5912.65214 4.59263e-15
5915.31099 4.61874e-15
5917.96985 4.63421e-15
5920.62870 4.59983e-15
5923.28755 4.60439e-15
5925.94641 4.63187e-15
5928.60526 4.65397e-15
5931.26411 4.64669e-15
5933.92297 4.63652e-15
5936.58182 4.62923e-15
5939.24067 4.62409e-15
5941.89953 4.61158e-15
5944.55838 4.57577e-15
5947.21723 4.56740e-15
5949.87609 4.56288e-15
5952.53494 4.59718e-15
5955.19379 4.62660e-15
5957.85265 4.55971e-15
5960.51150 4.53564e-15
5963.17036 4.57743e-15
5965.82921 4.56069e-15
5968.48806 4.55273e-15
5971.14692 4.58843e-15
5973.80577 4.58138e-15
5976.46462 4.57040e-15
5979.12348 4.55636e-15
5981.78233 4.55457e-15
5984.44118 4.58524e-15
5987.10004 4.55171e-15
5989.75889 4.53815e-15
5992.41774 4.52180e-15
5995.07660 4.56424e-15
5997.73545 4.54593e-15
6000.39431 4.53295e-15
6003.05316 4.58223e-15
6005.71201 4.54619e-15
6008.37087 4.54695e-15
6011.02972 4.55622e-15
6013.68857 4.55566e-15
6016.34743 4.56539e-15
6019.00628 4.55310e-15
6021.66513 4.53732e-15
6024.32399 4.57039e-15
6026.98284 4.55347e-15
6029.64169 4.51053e-15
6032.30055 4.50316e-15
6034.95940 4.49154e-15
6037.61825 4.53487e-15
6040.27711 4.49908e-15
6042.93596 4.46674e-15
6045.59482 4.52799e-15
6048.25367 4.49133e-15
6050.91252 4.42912e-15
6053.57138 4.45257e-15
6056.23023 4.48021e-15
6058.88908 4.47521e-15
6061.54794 4.43216e-15
6064.20679 4.38623e-15
6066.86564 4.40314e-15
6069.52450 4.40682e-15
6072.18335 4.39061e-15
6074.84220 4.38229e-15
6077.50106 4.33439e-15
6080.15991 4.34299e-15
6082.81876 4.38895e-15
6085.47762 4.32946e-15
6088.13647 4.26173e-15
6090.79533 4.28726e-15
6093.45418 4.35556e-15
6096.11303 4.39971e-15
6098.77189 4.39173e-15
6101.43074 4.34099e-15
6104.08959 4.28865e-15
6106.74845 4.27326e-15
6109.40730 4.26371e-15
6112.06615 4.25890e-15
6114.72501 4.29068e-15
6117.38386 4.27338e-15
6120.04271 4.27301e-15
6122.70157 4.28521e-15
6125.36042 4.22159e-15
6128.01928 4.18661e-15
6130.67813 4.19845e-15
6133.33698 4.19756e-15
6135.99584 4.20017e-15
6138.65469 4.15293e-15
6141.31354 4.12440e-15
6143.97240 4.15254e-15
6146.63125 4.19596e-15
6149.29010 4.14283e-15
6151.94896 4.10154e-15
6154.60781 4.10384e-15
6157.26666 4.08408e-15
6159.92552 4.02089e-15
6162.58437 3.99560e-15
6165.24322 3.98947e-15
6167.90208 3.97237e-15
6170.56093 3.94518e-15
6173.21979 3.91594e-15
6175.87864 3.89061e-15
6178.53749 3.86775e-15
6181.19635 3.88255e-15
6183.85520 3.90435e-15
6186.51405 3.89159e-15
6189.17291 3.91275e-15
6191.83176 3.95926e-15
6194.49061 3.94383e-15
6197.14947 3.91954e-15
6199.80832 3.93924e-15
6202.46717 3.94817e-15
6205.12603 3.97248e-15
6207.78488 4.01468e-15
6210.44373 4.01797e-15
6213.10259 4.02753e-15
6215.76144 4.04848e-15
6218.42030 4.04995e-15
6221.07915 4.07301e-15
6223.73800 4.08771e-15
6226.39686 4.06779e-15
6229.05571 4.07009e-15
6231.71456 4.06046e-15
6234.37342 4.08874e-15
6237.03227 4.15083e-15
6239.69112 4.16527e-15
6242.34998 4.15004e-15
6245.00883 4.11619e-15
6247.66768 4.08065e-15
6250.32654 4.15517e-15
6252.98539 4.21925e-15
6255.64425 4.22775e-15
6258.30310 4.24666e-15
6260.96195 4.25919e-15
6263.62081 4.28386e-15
6266.27966 4.33066e-15
6268.93851 4.38351e-15
6271.59737 4.37542e-15
6274.25622 4.35579e-15
6276.91507 4.37256e-15
6279.57393 4.38776e-15
6282.23278 4.43671e-15
6284.89163 4.50284e-15
6287.55049 4.54261e-15
6290.20934 4.57216e-15
6292.86819 4.61892e-15
6295.52705 4.70280e-15
6298.18590 4.76728e-15
6300.84476 4.77014e-15
6303.50361 4.80703e-15
6306.16246 4.90383e-15
6308.82132 4.96333e-15
6311.48017 4.99221e-15
6314.13902 5.02787e-15
6316.79788 5.06866e-15
6319.45673 5.12668e-15
6322.11558 5.17257e-15
6324.77444 5.21159e-15
6327.43329 5.22001e-15
6330.09214 5.20375e-15
6332.75100 5.27245e-15
6335.40985 5.33499e-15
6338.06871 5.37439e-15
6340.72756 5.42448e-15
6343.38641 5.42348e-15
6346.04527 5.45014e-15
6348.70412 5.49698e-15
6351.36297 5.54688e-15
6354.02183 5.52454e-15
6356.68068 5.54636e-15
6359.33953 5.59687e-15
6361.99839 5.65058e-15
6364.65724 5.70424e-15
6367.31609 5.70039e-15
6369.97495 5.68437e-15
6372.63380 5.76481e-15
6375.29265 5.88300e-15
6377.95151 5.94014e-15
6380.61036 5.93677e-15
6383.26922 5.98679e-15
6385.92807 6.06639e-15
6388.58692 6.04976e-15
6391.24578 6.04005e-15
6393.90463 6.06239e-15
6396.56348 6.08696e-15
6399.22234 6.14274e-15
6401.88119 6.16673e-15
6404.54004 6.16840e-15
6407.19890 6.21822e-15
6409.85775 6.27203e-15
6412.51660 6.26399e-15
6415.17546 6.25872e-15
6417.83431 6.33664e-15
6420.49316 6.39541e-15
6423.15202 6.38523e-15
6425.81087 6.39503e-15
6428.46973 6.39372e-15
6431.12858 6.42992e-15
6433.78743 6.51529e-15
6436.44629 6.47881e-15
6439.10514 6.42132e-15
6441.76399 6.42814e-15
6444.42285 6.44861e-15
6447.08170 6.44244e-15
6449.74055 6.44694e-15
6452.39941 6.45749e-15
6455.05826 6.43918e-15
6457.71711 6.47294e-15
6460.37597 6.41286e-15
6463.03482 6.40198e-15
6465.69368 6.36273e-15
6468.35253 6.32221e-15
6471.01138 6.35919e-15
6473.67024 6.33839e-15
6476.32909 6.33933e-15
6478.98794 6.33200e-15
6481.64680 6.33890e-15
6484.30565 6.33297e-15
6486.96450 6.35768e-15
6489.62336 6.33795e-15
6492.28221 6.35898e-15
6494.94106 6.38751e-15
6497.59992 6.34591e-15
6500.25877 6.35035e-15
6502.91762 6.39071e-15
6505.57648 6.39586e-15
6508.23533 6.36113e-15
6510.89419 6.32015e-15
6513.55304 6.30085e-15
6516.21189 6.25010e-15
6518.87075 6.22359e-15
6521.52960 6.28687e-15
6524.18845 6.29941e-15
6526.84731 6.25131e-15
6529.50616 6.24977e-15
6532.16501 6.24231e-15
6534.82387 6.19796e-15
6537.48272 6.15617e-15
6540.14157 6.13181e-15
6542.80043 6.13522e-15
6545.45928 6.14870e-15
6548.11813 6.04828e-15
6550.77699 6.01885e-15
6553.43584 6.03635e-15
6556.09470 6.07841e-15
6558.75355 6.06171e-15
6561.41240 5.96987e-15
6564.07126 5.94879e-15
6566.73011 5.95849e-15
6569.38896 5.92024e-15
6572.04782 5.92640e-15
6574.70667 5.94291e-15
6577.36552 5.85183e-15
6580.02438 5.81640e-15
6582.68323 5.85095e-15
6585.34208 5.84636e-15
6588.00094 5.80300e-15
6590.65979 5.77803e-15
6593.31865 5.77394e-15
6595.97750 5.77438e-15
6598.63635 5.75738e-15
6601.29521 5.71947e-15
6603.95406 5.65875e-15
6606.61291 5.61534e-15
6609.27177 5.61062e-15
6611.93062 5.59750e-15
6614.58947 5.56297e-15
6617.24833 5.54841e-15
6619.90718 5.57068e-15
6622.56603 5.55705e-15
6625.22489 5.50156e-15
6627.88374 5.46240e-15
6630.54259 5.45380e-15
6633.20145 5.46776e-15
6635.86030 5.42508e-15
6638.51916 5.38435e-15
6641.17801 5.40926e-15
6643.83686 5.42263e-15
6646.49572 5.44051e-15
6649.15457 5.39432e-15
6651.81342 5.34451e-15
6654.47228 5.37376e-15
6657.13113 5.32449e-15
6659.78998 5.24154e-15
6662.44884 5.19940e-15
6665.10769 5.22515e-15
6667.76654 5.24868e-15
6670.42540 5.21072e-15
6673.08425 5.17379e-15
6675.74310 5.17435e-15
6678.40196 5.17256e-15
6681.06081 5.15513e-15
6683.71967 5.09478e-15
6686.37852 5.08022e-15
6689.03737 5.10310e-15
6691.69623 5.06971e-15
6694.35508 5.04270e-15
6697.01393 5.06623e-15
6699.67279 5.07072e-15
6702.33164 5.02994e-15
6704.99049 4.95522e-15
6707.64935 4.92106e-15
6710.30820 4.96357e-15
6712.96705 4.97671e-15
6715.62591 4.91292e-15
6718.28476 4.86846e-15
6720.94362 4.84107e-15
6723.60247 4.82625e-15
6726.26132 4.83910e-15
6728.92018 4.82363e-15
6731.57903 4.78143e-15
6734.23788 4.75209e-15
6736.89674 4.73660e-15
6739.55559 4.72774e-15
6742.21444 4.72363e-15
6744.87330 4.72222e-15
6747.53215 4.69053e-15
6750.19100 4.64638e-15
6752.84986 4.64553e-15
6755.50871 4.61799e-15
6758.16756 4.60948e-15
6760.82642 4.61760e-15
6763.48527 4.59814e-15
6766.14413 4.57221e-15
6768.80298 4.55478e-15
6771.46183 4.54878e-15
6774.12069 4.52042e-15
6776.77954 4.49454e-15
6779.43839 4.52312e-15
6782.09725 4.53897e-15
6784.75610 4.50837e-15
6787.41495 4.45465e-15
6790.07381 4.40601e-15
6792.73266 4.41266e-15
6795.39151 4.41772e-15
6798.05037 4.44182e-15
6800.70922 4.44841e-15
6803.36808 4.41449e-15
6806.02693 4.39599e-15
6808.68578 4.39527e-15
6811.34464 4.37284e-15
6814.00349 4.36147e-15
6816.66234 4.38230e-15
6819.32120 4.35940e-15
6821.98005 4.28623e-15
6824.63890 4.27401e-15
6827.29776 4.30944e-15
6829.95661 4.30527e-15
6832.61546 4.26425e-15
6835.27432 4.26348e-15
6837.93317 4.27504e-15
6840.59202 4.21625e-15
6843.25088 4.16395e-15
6845.90973 4.20500e-15
6848.56859 4.26305e-15
6851.22744 4.26462e-15
6853.88629 4.23616e-15
6856.54515 4.19204e-15
6859.20400 4.14598e-15
6861.86285 4.08424e-15
6864.52171 4.02270e-15
6867.18056 4.02526e-15
6869.83941 4.02595e-15
6872.49827 4.05149e-15
6875.15712 4.08102e-15
6877.81597 3.99035e-15
6880.47483 3.96753e-15
6883.13368 3.96710e-15
6885.79253 3.96782e-15
6888.45139 3.98636e-15
6891.11024 3.97967e-15
6893.76910 3.98931e-15
6896.42795 3.95524e-15
6899.08680 3.90966e-15
6901.74566 3.91077e-15
6904.40451 3.89486e-15
6907.06336 3.91465e-15
6909.72222 3.91941e-15
6912.38107 3.90317e-15
6915.03992 3.87794e-15
6917.69878 3.87180e-15
6920.35763 3.87034e-15
6923.01648 3.86332e-15
6925.67534 3.89358e-15
6928.33419 3.92010e-15
6930.99305 3.91450e-15
6933.65190 3.89293e-15
6936.31075 3.86181e-15
6938.96961 3.86978e-15
6941.62846 3.86059e-15
6944.28731 3.75855e-15
6946.94617 3.70214e-15
6949.60502 3.72952e-15
6952.26387 3.73406e-15
6954.92273 3.73150e-15
6957.58158 3.73039e-15
6960.24043 3.75330e-15
6962.89929 3.78906e-15
6965.55814 3.78239e-15
6968.21699 3.79670e-15
6970.87585 3.77871e-15
6973.53470 3.75718e-15
6976.19356 3.76651e-15
6978.85241 3.72309e-15
6981.51126 3.69648e-15
6984.17012 3.71360e-15
6986.82897 3.69413e-15
6989.48782 3.69357e-15
6992.14668 3.67067e-15
6994.80553 3.64441e-15
6997.46438 3.68083e-15
7000.12324 3.68682e-15
7002.78209 3.66997e-15
7005.44094 3.66744e-15
7008.09980 3.63701e-15
7010.75865 3.62967e-15
7013.41750 3.62086e-15
7016.07636 3.56347e-15
7018.73521 3.55595e-15
7021.39407 3.59845e-15
7024.05292 3.57075e-15
7026.71177 3.57722e-15
7029.37063 3.61563e-15
7032.02948 3.62757e-15
7034.68833 3.61767e-15
7037.34719 3.59389e-15
7040.00604 3.58651e-15
7042.66489 3.61532e-15
7045.32375 3.62675e-15
7047.98260 3.60426e-15
7050.64145 3.58395e-15
7053.30031 3.58857e-15
7055.95916 3.58811e-15
7058.61802 3.57300e-15
7061.27687 3.57445e-15
7063.93572 3.56209e-15
7066.59458 3.54172e-15
7069.25343 3.56836e-15
7071.91228 3.60436e-15
7074.57114 3.60005e-15
7077.22999 3.57706e-15
7079.88884 3.55394e-15
7082.54770 3.55504e-15
7085.20655 3.59556e-15
7087.86540 3.60629e-15
7090.52426 3.58081e-15
7093.18311 3.58882e-15
7095.84196 3.55719e-15
7098.50082 3.52701e-15
7101.15967 3.53768e-15
7103.81853 3.55630e-15
7106.47738 3.53770e-15
7109.13623 3.53227e-15
7111.79509 3.50802e-15
7114.45394 3.49540e-15
7117.11279 3.51366e-15
7119.77165 3.55452e-15
7122.43050 3.59592e-15
7125.08935 3.52349e-15
7127.74821 3.48524e-15
7130.40706 3.51917e-15
7133.06591 3.54412e-15
7135.72477 3.53905e-15
7138.38362 3.50764e-15
7141.04247 3.49238e-15
7143.70133 3.49305e-15
7146.36018 3.51090e-15
7149.01904 3.50906e-15
7151.67789 3.44807e-15
7154.33674 3.41870e-15
7156.99560 3.46530e-15
7159.65445 3.48566e-15
7162.31330 3.46193e-15
7164.97216 3.40607e-15
7167.63101 3.36887e-15
7170.28986 3.38315e-15
7172.94872 3.35799e-15
7175.60757 3.35124e-15
7178.26642 3.36333e-15
7180.92528 3.34277e-15
7183.58413 3.39087e-15
7186.24299 3.40753e-15
7188.90184 3.39584e-15
7191.56069 3.42250e-15
7194.21955 3.38580e-15
7196.87840 3.33695e-15
7199.53725 3.28005e-15
7202.19611 3.28280e-15
7204.85496 3.34564e-15
7207.51381 3.32179e-15
7210.17267 3.25781e-15
7212.83152 3.29120e-15
7215.49037 3.33026e-15
7218.14923 3.31720e-15
7220.80808 3.28221e-15
7223.46693 3.24443e-15
7226.12579 3.24512e-15
7228.78464 3.21079e-15
7231.44350 3.22073e-15
7234.10235 3.25542e-15
7236.76120 3.22298e-15
7239.42006 3.20978e-15
7242.07891 3.22474e-15
7244.73776 3.10950e-15
7247.39662 2.99824e-15
7250.05547 2.98643e-15
7252.71432 3.01066e-15
7255.37318 3.00936e-15
7258.03203 3.03896e-15
7260.69088 3.08673e-15
7263.34974 3.08545e-15
7266.00859 3.05743e-15
7268.66745 3.05769e-15
7271.32630 3.06915e-15
7273.98515 3.03156e-15
7276.64401 2.97505e-15
7279.30286 2.96123e-15
7281.96171 3.00624e-15
7284.62057 3.07275e-15
7287.27942 3.08354e-15
7289.93827 3.02933e-15
7292.59713 3.00827e-15
7295.25598 3.08495e-15
7297.91483 3.11053e-15
7300.57369 3.08209e-15
7303.23254 3.06097e-15
7305.89139 3.03308e-15
7308.55025 3.01606e-15
7311.20910 3.04625e-15
7313.86796 3.04347e-15
7316.52681 3.06054e-15
7319.18566 3.08416e-15
7321.84452 3.10472e-15
7324.50337 3.15678e-15
7327.16222 3.16411e-15
7329.82108 3.11740e-15
7332.47993 3.11574e-15
7335.13878 3.16034e-15
7337.79764 3.17607e-15
7340.45649 3.16367e-15
7343.11534 3.16486e-15
7345.77420 3.15469e-15
7348.43305 3.12465e-15
7351.09190 3.11875e-15
7353.75076 3.12279e-15
7356.40961 3.11620e-15
7359.06847 3.12099e-15
7361.72732 3.09255e-15
7364.38617 3.09875e-15
7367.04503 3.10425e-15
7369.70388 3.10378e-15
7372.36273 3.13147e-15
7375.02159 3.16013e-15
7377.68044 3.16472e-15
7380.33929 3.14676e-15
7382.99815 3.12247e-15
7385.65700 3.11486e-15
7388.31585 3.11442e-15
7390.97471 3.10214e-15
7393.63356 3.09672e-15
7396.29242 3.08137e-15
7398.95127 3.06569e-15
7401.61012 3.07600e-15
7404.26898 3.10886e-15
7406.92783 3.10571e-15
7409.58668 3.02942e-15
7412.24554 3.02254e-15
7414.90439 3.03656e-15
7417.56324 3.04182e-15
7420.22210 3.08908e-15
7422.88095 3.09502e-15
7425.53980 3.07759e-15
7428.19866 3.05034e-15
7430.85751 3.02540e-15
7433.51636 3.05775e-15
7436.17522 3.08367e-15
7438.83407 3.03663e-15
7441.49293 3.00131e-15
7444.15178 3.01063e-15
7446.81063 3.00626e-15
7449.46949 3.01330e-15
7452.12834 3.03723e-15
7454.78719 3.02868e-15
7457.44605 3.00727e-15
7460.10490 3.02966e-15
7462.76375 3.07661e-15
7465.42261 3.07237e-15
7468.08146 3.01114e-15
7470.74031 2.93993e-15
7473.39917 2.95561e-15
7476.05802 3.00857e-15
7478.71687 3.02833e-15
7481.37573 3.03512e-15
7484.03458 3.03044e-15
7486.69344 3.00764e-15
7489.35229 2.99940e-15
7492.01114 3.01801e-15
7494.67000 3.03387e-15
7497.32885 3.03186e-15
7499.98770 3.00868e-15
7502.64656 2.98423e-15
7505.30541 2.98412e-15
7507.96426 3.00115e-15
7510.62312 3.03389e-15
7513.28197 3.04434e-15
7515.94082 2.99836e-15
7518.59968 2.96295e-15
7521.25853 2.97519e-15
7523.91739 2.99508e-15
7526.57624 3.00503e-15
7529.23509 2.99221e-15
7531.89395 2.99631e-15
7534.55280 2.99890e-15
7537.21165 2.93470e-15
7539.87051 2.90247e-15
7542.52936 2.91084e-15
7545.18821 2.94559e-15
7547.84707 2.98964e-15
7550.50592 2.95788e-15
7553.16477 2.92525e-15
7555.82363 2.90445e-15
7558.48248 2.88177e-15
7561.14133 2.89686e-15
7563.80019 2.94953e-15
7566.45904 2.95648e-15
7569.11790 2.93011e-15
7571.77675 2.90562e-15
7574.43560 2.88487e-15
7577.09446 2.90690e-15
7579.75331 2.92406e-15
7582.41216 2.92081e-15
7585.07102 2.94509e-15
7587.72987 2.94701e-15
7590.38872 2.87398e-15
7593.04758 2.84787e-15
7595.70643 2.87182e-15
7598.36528 2.85789e-15
7601.02414 2.82250e-15
7603.68299 2.82743e-15
7606.34184 2.90308e-15
7609.00070 2.95313e-15
7611.65955 2.87795e-15
7614.31841 2.77003e-15
7616.97726 2.76990e-15
7619.63611 2.82439e-15
7622.29497 2.87720e-15
7624.95382 2.86185e-15
7627.61267 2.79665e-15
7630.27153 2.76417e-15
7632.93038 2.75345e-15
7635.58923 2.79205e-15
7638.24809 2.83978e-15
7640.90694 2.80795e-15
7643.56579 2.77039e-15
7646.22465 2.81547e-15
7648.88350 2.86156e-15
7651.54236 2.83842e-15
7654.20121 2.80792e-15
7656.86006 2.83152e-15
7659.51892 2.81056e-15
7662.17777 2.79397e-15
7664.83662 2.81003e-15
7667.49548 2.82425e-15
7670.15433 2.82456e-15
7672.81318 2.84222e-15
7675.47204 2.81650e-15
7678.13089 2.77384e-15
7680.78974 2.76086e-15
7683.44860 2.76336e-15
7686.10745 2.78014e-15
7688.76630 2.74469e-15
7691.42516 2.73508e-15
7694.08401 2.73125e-15
7696.74287 2.71527e-15
7699.40172 2.75202e-15
7702.06057 2.79664e-15
7704.71943 2.80391e-15
7707.37828 2.76481e-15
7710.03713 2.72705e-15
7712.69599 2.70562e-15
7715.35484 2.71519e-15
7718.01369 2.76209e-15
7720.67255 2.76576e-15
7723.33140 2.76686e-15
7725.99025 2.73716e-15
7728.64911 2.69591e-15
7731.30796 2.70758e-15
7733.96682 2.74073e-15
7736.62567 2.76549e-15
7739.28452 2.77645e-15
7741.94338 2.71128e-15
7744.60223 2.62458e-15
7747.26108 2.62042e-15
7749.91994 2.66828e-15
7752.57879 2.71010e-15
7755.23764 2.73754e-15
7757.89650 2.70528e-15
7760.55535 2.66877e-15
7763.21420 2.64830e-15
7765.87306 2.64979e-15
7768.53191 2.66730e-15
7771.19076 2.68854e-15
7773.84962 2.68195e-15
7776.50847 2.65951e-15
7779.16733 2.61522e-15
7781.82618 2.59592e-15
7784.48503 2.62075e-15
7787.14389 2.64139e-15
7789.80274 2.64956e-15
7792.46159 2.63872e-15
7795.12045 2.61375e-15
7797.77930 2.56999e-15
7800.43815 2.54053e-15
7803.09701 2.57218e-15
7805.75586 2.60131e-15
7808.41471 2.59586e-15
7811.07357 2.57520e-15
7813.73242 2.54262e-15
7816.39127 2.52957e-15
7819.05013 2.54186e-15
7821.70898 2.55495e-15
7824.36784 2.54410e-15
7827.02669 2.52180e-15
7829.68554 2.51839e-15
7832.34440 2.51382e-15
7835.00325 2.52061e-15
7837.66210 2.52729e-15
7840.32096 2.52364e-15
7842.97981 2.52419e-15
7845.63866 2.51900e-15
7848.29752 2.49113e-15
7850.95637 2.45184e-15
7853.61522 2.45445e-15
7856.27408 2.48534e-15
7858.93293 2.51491e-15
7861.59179 2.51593e-15
7864.25064 2.50405e-15
7866.90949 2.47486e-15
7869.56835 2.43764e-15
7872.22720 2.40308e-15
7874.88605 2.41539e-15
7877.54491 2.46620e-15
7880.20376 2.50170e-15
7882.86261 2.48353e-15
7885.52147 2.42049e-15
7888.18032 2.37506e-15
7890.83917 2.36649e-15
7893.49803 2.38097e-15
7896.15688 2.42065e-15
7898.81573 2.43679e-15
7901.47459 2.43331e-15
7904.13344 2.42937e-15
7906.79230 2.39849e-15
7909.45115 2.36866e-15
7912.11000 2.37611e-15
7914.76886 2.41086e-15
7917.42771 2.43276e-15
7920.08656 2.43984e-15
7922.74542 2.42129e-15
7925.40427 2.37707e-15
7928.06312 2.35500e-15
7930.72198 2.35769e-15
7933.38083 2.38826e-15
7936.03968 2.43303e-15
7938.69854 2.44062e-15
7941.35739 2.41426e-15
7944.01624 2.39005e-15
7946.67510 2.37685e-15
7949.33395 2.37537e-15
7951.99281 2.37651e-15
7954.65166 2.38151e-15
7957.31051 2.39475e-15
7959.96937 2.39365e-15
7962.62822 2.35983e-15
7965.28707 2.33676e-15
7967.94593 2.33516e-15
7970.60478 2.34410e-15
7973.26363 2.37214e-15
7975.92249 2.40110e-15
7978.58134 2.39925e-15
7981.24019 2.35525e-15
7983.89905 2.32379e-15
7986.55790 2.33189e-15
7989.21676 2.34883e-15
7991.87561 2.39134e-15
7994.53446 2.43304e-15
7997.19332 2.40667e-15
7999.85217 2.34223e-15
8002.51102 2.29695e-15
8005.16988 2.31865e-15
8007.82873 2.33239e-15
8010.48758 2.32963e-15
8013.14644 2.32570e-15
8015.80529 2.33811e-15
8018.46414 2.35330e-15
8021.12300 2.33630e-15
8023.78185 2.31145e-15
8026.44070 2.31731e-15
8029.09956 2.33682e-15
8031.75841 2.32919e-15
8034.41727 2.29475e-15
8037.07612 2.26323e-15
8039.73497 2.25248e-15
8042.39383 2.26487e-15
8045.05268 2.28114e-15
8047.71153 2.27644e-15
8050.37039 2.27477e-15
8053.02924 2.25813e-15
8055.68809 2.24254e-15
8058.34695 2.25979e-15
8061.00580 2.26216e-15
8063.66465 2.25511e-15
8066.32351 2.24844e-15
8068.98236 2.23582e-15
8071.64121 2.21294e-15
8074.30007 2.19359e-15
8076.95892 2.19820e-15
8079.61778 2.20500e-15
8082.27663 2.21426e-15
8084.93548 2.23185e-15
8087.59434 2.21531e-15
8090.25319 2.17042e-15
8092.91204 2.14406e-15
8095.57090 2.13166e-15
8098.22975 2.13310e-15
8100.88860 2.14621e-15
8103.54746 2.15297e-15
8106.20631 2.13825e-15
8108.86516 2.08896e-15
8111.52402 2.06271e-15
8114.18287 2.06398e-15
8116.84173 2.05711e-15
8119.50058 2.05111e-15
8122.15943 2.04684e-15
8124.81829 2.03369e-15
8127.47714 2.00232e-15
8130.13599 1.96907e-15
8132.79485 1.94521e-15
8135.45370 1.93785e-15
8138.11255 1.94084e-15
8140.77141 1.94861e-15
8143.43026 1.94210e-15
8146.08911 1.90469e-15
8148.74797 1.84168e-15
8151.40682 1.81855e-15
8154.06567 1.83401e-15
8156.72453 1.82809e-15
8159.38338 1.80366e-15
8162.04224 1.79576e-15
8164.70109 1.78951e-15
8167.35994 1.78025e-15
8170.01880 1.79806e-15
8172.67765 1.82934e-15
8175.33650 1.81990e-15
8177.99536 1.78518e-15
8180.65421 1.77448e-15
8183.31306 1.79956e-15
8185.97192 1.84653e-15
8188.63077 1.86729e-15
8191.28962 1.85864e-15
8193.94848 1.84820e-15
8196.60733 1.84529e-15
8199.26619 1.87436e-15
8201.92504 1.93149e-15
8204.58389 2.00070e-15
8207.24275 2.02279e-15
8209.90160 2.00536e-15
8212.56045 2.02780e-15
8215.21931 2.04493e-15
8217.87816 2.01617e-15
8220.53701 1.96671e-15
8223.19587 1.89052e-15
8225.85472 1.78499e-15
8228.51357 1.69147e-15
8231.17243 1.65865e-15
8233.83128 1.72961e-15
8236.49013 1.83490e-15
8239.14899 1.90903e-15
8241.80784 1.95760e-15
8244.46670 1.98697e-15
8247.12555 1.99459e-15
8249.78440 1.99148e-15
8252.44326 1.98822e-15
8255.10211 1.99484e-15
8257.76096 2.00931e-15
8260.41982 2.03288e-15
8263.07867 2.07028e-15
8265.73752 2.07950e-15
8268.39638 2.03436e-15
8271.05523 1.99584e-15
8273.71408 1.98129e-15
8276.37294 1.94948e-15
8279.03179 1.93752e-15
8281.69064 1.96880e-15
8284.34950 2.00402e-15
8287.00835 2.02356e-15
8289.66721 2.00924e-15
8292.32606 1.98579e-15
8294.98491 1.99311e-15
8297.64377 2.02651e-15
8300.30262 2.07911e-15
8302.96147 2.10730e-15
8305.62033 2.07932e-15
8308.27918 2.02869e-15
8310.93803 2.01881e-15
8313.59689 2.07158e-15
8316.25574 2.10601e-15
8318.91459 2.09917e-15
8321.57345 2.11826e-15
8324.23230 2.15156e-15
8326.89116 2.16017e-15
8329.55001 2.14830e-15
8332.20886 2.15268e-15
8334.86772 2.16440e-15
8337.52657 2.18212e-15
8340.18542 2.20774e-15
8342.84428 2.26280e-15
8345.50313 2.33730e-15
8348.16198 2.37250e-15
8350.82084 2.34900e-15
8353.47969 2.29579e-15
8356.13854 2.24501e-15
8358.79740 2.22756e-15
8361.45625 2.26431e-15
8364.11510 2.29826e-15
8366.77396 2.29770e-15
8369.43281 2.30929e-15
8372.09167 2.34811e-15
8374.75052 2.37985e-15
8377.40937 2.35788e-15
8380.06823 2.30988e-15
8382.72708 2.29498e-15
8385.38593 2.32941e-15
8388.04479 2.35425e-15
8390.70364 2.34080e-15
8393.36249 2.32651e-15
8396.02135 2.35838e-15
8398.68020 2.37082e-15
8401.33905 2.32889e-15
8403.99791 2.28817e-15
8406.65676 2.30951e-15
8409.31561 2.33747e-15
8411.97447 2.36511e-15
8414.63332 2.41839e-15
8417.29218 2.43109e-15
8419.95103 2.40262e-15
8422.60988 2.38359e-15
8425.26874 2.40803e-15
8427.92759 2.41823e-15
8430.58644 2.38516e-15
8433.24530 2.34808e-15
8435.90415 2.34232e-15
8438.56300 2.39343e-15
8441.22186 2.46334e-15
8443.88071 2.46516e-15
8446.53956 2.42006e-15
8449.19842 2.41168e-15
8451.85727 2.41799e-15
8454.51613 2.41762e-15
8457.17498 2.42232e-15
8459.83383 2.40237e-15
8462.49269 2.37137e-15
8465.15154 2.35922e-15
8467.81039 2.37707e-15
8470.46925 2.39771e-15
8473.12810 2.37285e-15
8475.78695 2.35872e-15
8478.44581 2.36180e-15
8481.10466 2.34411e-15
8483.76351 2.30809e-15
8486.42237 2.32629e-15
8489.08122 2.37289e-15
8491.74007 2.34889e-15
8494.39893 2.32280e-15
8497.05778 2.33675e-15
8499.71664 2.34411e-15
8502.37549 2.34296e-15
8505.03434 2.35451e-15
8507.69320 2.34622e-15
8510.35205 2.32971e-15
8513.01090 2.32097e-15
8515.66976 2.29141e-15
8518.32861 2.26034e-15
8520.98746 2.25124e-15
8523.64632 2.24379e-15
8526.30517 2.24870e-15
8528.96402 2.29182e-15
8531.62288 2.33315e-15
8534.28173 2.33504e-15
8536.94058 2.29949e-15
8539.59944 2.24331e-15
8542.25829 2.22414e-15
8544.91715 2.24116e-15
8547.57600 2.24110e-15
8550.23485 2.25346e-15
8552.89371 2.24380e-15
8555.55256 2.19554e-15
8558.21141 2.19241e-15
8560.87027 2.26784e-15
8563.52912 2.34354e-15
8566.18797 2.33351e-15
8568.84683 2.28244e-15
8571.50568 2.24719e-15
8574.16453 2.20565e-15
8576.82339 2.17269e-15
8579.48224 2.18983e-15
8582.14110 2.21825e-15
8584.79995 2.22752e-15
8587.45880 2.23841e-15
8590.11766 2.23897e-15
8592.77651 2.21011e-15
8595.43536 2.16599e-15
8598.09422 2.13191e-15
8600.75307 2.12857e-15
8603.41192 2.16356e-15
8606.07078 2.20959e-15
8608.72963 2.23370e-15
8611.38848 2.23010e-15
8614.04734 2.19661e-15
8616.70619 2.16079e-15
8619.36504 2.15038e-15
8622.02390 2.14329e-15
8624.68275 2.11157e-15
8627.34161 2.09456e-15
8630.00046 2.12755e-15
8632.65931 2.16158e-15
8635.31817 2.19525e-15
8637.97702 2.18907e-15
8640.63587 2.11954e-15
8643.29473 2.06126e-15
8645.95358 2.09533e-15
8648.61243 2.20610e-15
8651.27129 2.25863e-15
8653.93014 2.20982e-15
8656.58899 2.13708e-15
8659.24785 2.05886e-15
8661.90670 1.97893e-15
8664.56556 1.96068e-15
8667.22441 2.05617e-15
8669.88326 2.20129e-15
8672.54212 2.27189e-15
8675.20097 2.25014e-15
8677.85982 2.18125e-15
8680.51868 2.11018e-15
8683.17753 2.07585e-15
8685.83638 2.07789e-15
8688.49524 2.08595e-15
8691.15409 2.10133e-15
8693.81294 2.10319e-15
8696.47180 2.06887e-15
8699.13065 2.04859e-15
8701.78950 2.07152e-15
8704.44836 2.12233e-15
8707.10721 2.15250e-15
8709.76607 2.14997e-15
8712.42492 2.15302e-15
8715.08377 2.13486e-15
8717.74263 2.09196e-15
8720.40148 2.06587e-15
8723.06033 2.04682e-15
8725.71919 2.04289e-15
8728.37804 2.08676e-15
8731.03689 2.14075e-15
8733.69575 2.15913e-15
8736.35460 2.16566e-15
8739.01345 2.16646e-15
8741.67231 2.14926e-15
8744.33116 2.12197e-15
8746.99001 2.09836e-15
8749.64887 2.10199e-15
8752.30772 2.11727e-15
8754.96658 2.11980e-15
8757.62543 2.11860e-15
8760.28428 2.11391e-15
8762.94314 2.10804e-15
8765.60199 2.11261e-15
8768.26084 2.13357e-15
8770.91970 2.12496e-15
8773.57855 2.08288e-15
8776.23740 2.08952e-15
8778.89626 2.09151e-15
8781.55511 2.05188e-15
8784.21396 2.01119e-15
8786.87282 2.00476e-15
8789.53167 2.06343e-15
8792.19053 2.10366e-15
8794.84938 2.09825e-15
8797.50823 2.08687e-15
8800.16709 2.09575e-15
8802.82594 2.10570e-15
8805.48479 2.08469e-15
8808.14365 2.05907e-15
8810.80250 2.05647e-15
8813.46135 2.06091e-15
8816.12021 2.06360e-15
8818.77906 2.05836e-15
8821.43791 2.06138e-15
8824.09677 2.09419e-15
8826.75562 2.13771e-15
8829.41447 2.17173e-15
8832.07333 2.18716e-15
8834.73218 2.20994e-15
8837.39104 2.22189e-15
8840.04989 2.13729e-15
8842.70874 1.98345e-15
8845.36760 1.89961e-15
8848.02645 1.93572e-15
8850.68530 2.00709e-15
8853.34416 2.06700e-15
8856.00301 2.09821e-15
8858.66186 2.10226e-15
8861.32072 2.10932e-15
8863.97957 2.09911e-15
8866.63842 2.05688e-15
8869.29728 2.00757e-15
8871.95613 1.97668e-15
8874.61498 1.99742e-15
8877.27384 2.06938e-15
8879.93269 2.14589e-15
8882.59155 2.20724e-15
8885.25040 2.20968e-15
8887.90925 2.15673e-15
8890.56811 2.06925e-15
8893.22696 2.01031e-15
8895.88581 2.06696e-15
8898.54467 2.11151e-15
8901.20352 2.11438e-15
8903.86237 2.13235e-15
8906.52123 2.13129e-15
8909.18008 2.12669e-15
8911.83893 2.15986e-15
8914.49779 2.19346e-15
8917.15664 2.17969e-15
8919.81550 2.13768e-15
8922.47435 2.10183e-15
8925.13320 2.07912e-15
8927.79206 2.08138e-15
8930.45091 2.09145e-15
8933.10976 2.07496e-15
8935.76862 2.07607e-15
8938.42747 2.08933e-15
8941.08632 2.08499e-15
8943.74518 2.07335e-15
8946.40403 2.05461e-15
8949.06288 2.02192e-15
8951.72174 1.97748e-15
8954.38059 1.94237e-15
8957.03944 1.92692e-15
8959.69830 1.89418e-15
8962.35715 1.82365e-15
8965.01601 1.77537e-15
8967.67486 1.78266e-15
8970.33371 1.83038e-15
8972.99257 1.85029e-15
8975.65142 1.82578e-15
8978.31027 1.82194e-15
8980.96913 1.84461e-15
8983.62798 1.82492e-15
8986.28683 1.75191e-15
8988.94569 1.69183e-15
8991.60454 1.66791e-15
8994.26339 1.71227e-15
8996.92225 1.80275e-15
8999.58110 1.84025e-15
9002.23996 1.79685e-15
9004.89881 1.75624e-15
9007.55766 1.74197e-15
9010.21652 1.76930e-15
9012.87537 1.86561e-15
9015.53422 1.92873e-15
9018.19308 1.92039e-15
9020.85193 1.91175e-15
9023.51078 1.92381e-15
9026.16964 1.92772e-15
9028.82849 1.91859e-15
9031.48734 1.94486e-15
9034.14620 2.01689e-15
9036.80505 2.05805e-15
9039.46390 2.04109e-15
9042.12276 2.00422e-15
9044.78161 1.98412e-15
9047.44047 1.99257e-15
9050.09932 2.03010e-15
9052.75817 2.07725e-15
9055.41703 2.06887e-15
9058.07588 1.97341e-15
9060.73473 1.91115e-15
9063.39359 1.92862e-15
9066.05244 1.93303e-15
9068.71129 1.91939e-15
9071.37015 1.90894e-15
9074.02900 1.87612e-15
9076.68785 1.82749e-15
9079.34671 1.79322e-15
9082.00556 1.75631e-15
9084.66441 1.71550e-15
9087.32327 1.75559e-15
9089.98212 1.82006e-15
9092.64098 1.83783e-15
9095.29983 1.77978e-15
9097.95868 1.68013e-15
9100.61754 1.63559e-15
9103.27639 1.67033e-15
9105.93524 1.76474e-15
9108.59410 1.90701e-15
9111.25295 2.01860e-15
9113.91180 2.02648e-15
9116.57066 1.93731e-15
9119.22951 1.82927e-15
9121.88836 1.78106e-15
9124.54722 1.77523e-15
9127.20607 1.74110e-15
9129.86493 1.68130e-15
9132.52378 1.63136e-15
9135.18263 1.61752e-15
9137.84149 1.64645e-15
9140.50034 1.70130e-15
9143.15919 1.82951e-15
9145.81805 1.90784e-15
9148.47690 1.80536e-15
9151.13575 1.64965e-15
9153.79461 1.56100e-15
9156.45346 1.54769e-15
9159.11231 1.63494e-15
9161.77117 1.78066e-15
9164.43002 1.87001e-15
9167.08887 1.90127e-15
9169.74773 1.85209e-15
9172.40658 1.73667e-15
9175.06544 1.62770e-15
9177.72429 1.56147e-15
9180.38314 1.56762e-15
9183.04200 1.63513e-15
9185.70085 1.72778e-15
9188.35970 1.84589e-15
9191.01856 1.96060e-15
9193.67741 1.98393e-15
9196.33626 1.89796e-15
9198.99512 1.83436e-15
